Data from thigh1_Reflection__2__11-33-38-332.txt Node

Date: Thu Aug 04 11:33:38 AEST 2022
User: kathy
Spectrometer: JAZA2503
Trigger mode: 0
Integration Time (sec): 2.883200E-1
Scans to average: 10
Electric dark correction enabled: true
Nonlinearity correction enabled: true
Boxcar width: 5
XAxis mode: Wavelengths
Number of Pixels in Spectrum: 2048
>>>>>Begin Spectral Data<<<<<
189.467	-5.14
189.852	-55.16
190.237	-2180.57
190.622	-35.36
191.007	60.15
191.392	177.05
191.777	429.08
192.162	-212.72
192.546	-77.28
192.931	47.18
193.316	14.4
193.701	-21.33
194.086	108.11
194.47	94.95
194.855	149.47
195.24	-472.9
195.624	-170.53
196.009	347.98
196.393	215.94
196.778	-740.33
197.163	61.25
197.547	70.19
197.931	43.54
198.316	31.68
198.7	14.93
199.085	9.63
199.469	10.88
199.853	11.67
200.237	10.88
200.622	12.54
201.006	4.58
201.39	3.8
201.774	-3.49
202.158	-3.31
202.542	-4.91
202.926	-8.05
203.31	-10.21
203.694	-11.25
204.078	-17.36
204.462	-13.83
204.846	-8.82
205.23	-9.03
205.614	-12.37
205.998	-15
206.381	-9.4
206.765	-7.9
207.149	-3.34
207.532	6.63
207.916	4.97
208.3	12.55
208.683	8.14
209.067	5.29
209.45	15.65
209.834	16.09
210.217	21.01
210.601	20.31
210.984	20.2
211.367	19.31
211.751	13.56
212.134	15.54
212.517	12.53
212.901	18.41
213.284	20.74
213.667	18.49
214.05	19.16
214.433	16.43
214.816	16.96
215.199	18.46
215.582	21.01
215.965	18.94
216.348	17.31
216.731	18.24
217.114	13.23
217.497	6.93
217.88	7.14
218.262	5.36
218.645	7.58
219.028	4.56
219.411	0.81
219.793	-2.21
220.176	1.63
220.559	2.74
220.941	0.94
221.324	-0.66
221.706	1
222.089	0.71
222.471	1.46
222.853	-2.19
223.236	-1.26
223.618	-1.47
224	2.09
224.383	-0.42
224.765	0.9
225.147	1.77
225.529	2.84
225.912	2.53
226.294	1.93
226.676	2.46
227.058	3.13
227.44	3.02
227.822	2.42
228.204	1.69
228.586	1.96
228.968	1.65
229.349	1.23
229.731	1.33
230.113	0.96
230.495	0.92
230.877	0.58
231.258	0.75
231.64	0.55
232.022	0.64
232.403	0.45
232.785	0.81
233.166	0.7
233.548	0.93
233.929	0.66
234.311	0.9
234.692	0.5
235.073	0.61
235.455	0.71
235.836	0.74
236.217	1.07
236.599	0.92
236.98	0.17
237.361	-0.09
237.742	-0.24
238.123	-0.27
238.504	-0.1
238.885	-0.06
239.266	0.01
239.647	-0.12
240.028	0.22
240.409	0.01
240.79	0.21
241.171	0.48
241.552	0.7
241.933	0.75
242.313	0.91
242.694	0.87
243.075	1.17
243.456	1.09
243.836	1.27
244.217	1.09
244.597	1.21
244.978	1.25
245.358	1.3
245.739	1.16
246.119	1.09
246.5	1.09
246.88	1.11
247.26	0.95
247.641	0.94
248.021	0.9
248.401	0.96
248.781	0.94
249.162	0.97
249.542	0.94
249.922	1.04
250.302	1.1
250.682	1.02
251.062	0.98
251.442	1.01
251.822	1.04
252.202	0.97
252.582	0.98
252.961	1.02
253.341	0.97
253.721	0.95
254.101	0.78
254.48	0.82
254.86	0.76
255.24	0.82
255.619	0.85
255.999	0.77
256.378	0.71
256.758	0.7
257.137	0.57
257.517	0.62
257.896	0.69
258.276	0.65
258.655	0.55
259.034	0.56
259.414	0.52
259.793	0.46
260.172	0.51
260.551	0.49
260.93	0.5
261.309	0.52
261.688	0.52
262.068	0.51
262.447	0.59
262.825	0.61
263.204	0.62
263.583	0.59
263.962	0.71
264.341	0.71
264.72	0.81
265.099	0.72
265.477	0.65
265.856	0.56
266.235	0.53
266.613	0.51
266.992	0.52
267.371	0.56
267.749	0.63
268.128	0.63
268.506	0.68
268.884	0.62
269.263	0.63
269.641	0.67
270.02	0.66
270.398	0.68
270.776	0.72
271.154	0.73
271.533	0.68
271.911	0.61
272.289	0.56
272.667	0.56
273.045	0.5
273.423	0.55
273.801	0.5
274.179	0.53
274.557	0.49
274.935	0.46
275.313	0.44
275.69	0.45
276.068	0.49
276.446	0.5
276.824	0.5
277.201	0.56
277.579	0.56
277.957	0.65
278.334	0.62
278.712	0.61
279.089	0.56
279.467	0.6
279.844	0.63
280.222	0.61
280.599	0.62
280.976	0.56
281.354	0.51
281.731	0.48
282.108	0.46
282.485	0.48
282.863	0.52
283.24	0.53
283.617	0.51
283.994	0.46
284.371	0.49
284.748	0.48
285.125	0.5
285.502	0.53
285.879	0.56
286.256	0.59
286.633	0.64
287.009	0.65
287.386	0.68
287.763	0.7
288.139	0.78
288.516	0.83
288.893	0.84
289.269	0.87
289.646	0.9
290.022	0.93
290.399	0.9
290.775	0.87
291.152	0.88
291.528	0.89
291.904	0.87
292.281	0.85
292.657	0.82
293.033	0.86
293.41	0.88
293.786	0.88
294.162	0.91
294.538	0.97
294.914	1.01
295.29	1.04
295.666	1.1
296.042	1.12
296.418	1.18
296.794	1.22
297.17	1.23
297.546	1.28
297.921	1.32
298.297	1.34
298.673	1.36
299.048	1.39
299.424	1.41
299.8	1.43
300.175	1.51
300.551	1.53
300.926	1.55
301.302	1.6
301.677	1.62
302.053	1.67
302.428	1.65
302.803	1.64
303.179	1.65
303.554	1.68
303.929	1.69
304.304	1.68
304.68	1.71
305.055	1.75
305.43	1.78
305.805	1.77
306.18	1.8
306.555	1.87
306.93	1.93
307.305	1.97
307.679	2
308.054	2.02
308.429	1.99
308.804	2
309.179	2
309.553	1.96
309.928	2.01
310.303	2
310.677	2.02
311.052	2.05
311.426	2.07
311.801	2.05
312.175	2.06
312.55	2.12
312.924	2.12
313.298	2.14
313.673	2.18
314.047	2.18
314.421	2.16
314.795	2.16
315.17	2.17
315.544	2.17
315.918	2.22
316.292	2.25
316.666	2.27
317.04	2.3
317.414	2.35
317.788	2.38
318.162	2.41
318.535	2.46
318.909	2.52
319.283	2.53
319.657	2.59
320.03	2.63
320.404	2.69
320.778	2.77
321.151	2.9
321.525	3.07
321.898	3.17
322.272	3.27
322.645	3.38
323.019	3.46
323.392	3.57
323.765	3.75
324.139	3.94
324.512	4.12
324.885	4.35
325.258	4.55
325.632	4.72
326.005	4.85
326.378	4.96
326.751	5.03
327.124	5.11
327.497	5.14
327.87	5.08
328.243	5.07
328.616	5.05
328.988	5.05
329.361	5.01
329.734	5
330.107	5.01
330.479	4.92
330.852	4.9
331.225	4.87
331.597	4.84
331.97	4.77
332.342	4.75
332.715	4.71
333.087	4.63
333.46	4.56
333.832	4.55
334.204	4.53
334.577	4.47
334.949	4.44
335.321	4.42
335.693	4.4
336.065	4.29
336.438	4.27
336.81	4.2
337.182	4.22
337.554	4.13
337.926	4.07
338.298	4.05
338.669	3.94
339.041	3.89
339.413	3.83
339.785	3.79
340.157	3.74
340.528	3.68
340.9	3.62
341.272	3.57
341.643	3.54
342.015	3.52
342.386	3.58
342.758	3.61
343.129	3.65
343.501	3.68
343.872	3.7
344.243	3.69
344.615	3.7
344.986	3.71
345.357	3.71
345.728	3.74
346.099	3.72
346.471	3.7
346.842	3.68
347.213	3.69
347.584	3.65
347.955	3.63
348.326	3.6
348.697	3.53
349.067	3.48
349.438	3.48
349.809	3.47
350.18	3.51
350.55	3.53
350.921	3.56
351.292	3.57
351.662	3.59
352.033	3.6
352.403	3.59
352.774	3.59
353.144	3.58
353.515	3.57
353.885	3.56
354.255	3.54
354.626	3.56
354.996	3.57
355.366	3.58
355.736	3.58
356.107	3.56
356.477	3.56
356.847	3.57
357.217	3.61
357.587	3.64
357.957	3.65
358.327	3.68
358.697	3.68
359.066	3.69
359.436	3.69
359.806	3.7
360.176	3.74
360.546	3.74
360.915	3.76
361.285	3.73
361.654	3.72
362.024	3.72
362.393	3.72
362.763	3.72
363.132	3.73
363.502	3.74
363.871	3.77
364.24	3.77
364.61	3.8
364.979	3.81
365.348	3.85
365.717	3.88
366.087	3.91
366.456	3.94
366.825	3.97
367.194	4
367.563	4.02
367.932	4.04
368.301	4.07
368.669	4.09
369.038	4.11
369.407	4.14
369.776	4.16
370.145	4.18
370.513	4.19
370.882	4.2
371.25	4.21
371.619	4.26
371.988	4.29
372.356	4.31
372.724	4.33
373.093	4.4
373.461	4.44
373.83	4.48
374.198	4.52
374.566	4.58
374.934	4.64
375.303	4.68
375.671	4.71
376.039	4.76
376.407	4.83
376.775	4.89
377.143	4.93
377.511	4.96
377.879	5
378.247	5.06
378.615	5.09
378.982	5.15
379.35	5.21
379.718	5.25
380.086	5.29
380.453	5.33
380.821	5.37
381.188	5.39
381.556	5.44
381.923	5.49
382.291	5.51
382.658	5.54
383.026	5.57
383.393	5.62
383.76	5.67
384.128	5.71
384.495	5.74
384.862	5.77
385.229	5.83
385.596	5.87
385.963	5.92
386.33	5.95
386.697	6
387.064	6.05
387.431	6.09
387.798	6.12
388.165	6.16
388.532	6.21
388.899	6.22
389.265	6.24
389.632	6.25
389.999	6.26
390.365	6.29
390.732	6.32
391.098	6.33
391.465	6.34
391.831	6.35
392.198	6.37
392.564	6.38
392.93	6.41
393.297	6.44
393.663	6.45
394.029	6.48
394.395	6.51
394.762	6.53
395.128	6.55
395.494	6.58
395.86	6.6
396.226	6.62
396.592	6.64
396.958	6.67
397.323	6.69
397.689	6.73
398.055	6.75
398.421	6.76
398.787	6.79
399.152	6.81
399.518	6.84
399.883	6.87
400.249	6.88
400.615	6.91
400.98	6.91
401.345	6.94
401.711	6.96
402.076	6.97
402.442	6.99
402.807	6.98
403.172	6.99
403.537	6.99
403.902	6.99
404.268	7.02
404.633	7.02
404.998	7.05
405.363	7.04
405.728	7.06
406.093	7.06
406.457	7.07
406.822	7.11
407.187	7.14
407.552	7.16
407.917	7.19
408.281	7.2
408.646	7.22
409.011	7.24
409.375	7.25
409.74	7.25
410.104	7.27
410.469	7.28
410.833	7.29
411.197	7.28
411.562	7.31
411.926	7.3
412.29	7.29
412.655	7.29
413.019	7.3
413.383	7.31
413.747	7.33
414.111	7.34
414.475	7.36
414.839	7.36
415.203	7.37
415.567	7.37
415.931	7.4
416.295	7.42
416.658	7.43
417.022	7.42
417.386	7.44
417.749	7.44
418.113	7.46
418.477	7.47
418.84	7.48
419.204	7.51
419.567	7.51
419.931	7.53
420.294	7.53
420.657	7.56
421.021	7.59
421.384	7.61
421.747	7.63
422.11	7.65
422.473	7.65
422.836	7.67
423.199	7.66
423.562	7.68
423.925	7.68
424.288	7.69
424.651	7.69
425.014	7.69
425.377	7.68
425.74	7.66
426.102	7.68
426.465	7.71
426.828	7.72
427.19	7.73
427.553	7.75
427.916	7.76
428.278	7.77
428.641	7.77
429.003	7.79
429.365	7.8
429.728	7.82
430.09	7.82
430.452	7.82
430.814	7.82
431.177	7.82
431.539	7.83
431.901	7.85
432.263	7.86
432.625	7.88
432.987	7.9
433.349	7.93
433.711	7.95
434.072	7.97
434.434	7.99
434.796	8.01
435.158	8.06
435.519	8.09
435.881	8.11
436.243	8.14
436.604	8.15
436.966	8.16
437.327	8.17
437.689	8.19
438.05	8.19
438.411	8.21
438.773	8.24
439.134	8.26
439.495	8.27
439.856	8.27
440.218	8.28
440.579	8.32
440.94	8.33
441.301	8.36
441.662	8.39
442.023	8.44
442.384	8.45
442.745	8.48
443.105	8.47
443.466	8.49
443.827	8.51
444.188	8.52
444.548	8.51
444.909	8.54
445.269	8.55
445.63	8.56
445.99	8.55
446.351	8.57
446.711	8.56
447.072	8.57
447.432	8.59
447.792	8.61
448.153	8.63
448.513	8.66
448.873	8.65
449.233	8.66
449.593	8.67
449.953	8.68
450.313	8.69
450.673	8.68
451.033	8.68
451.393	8.68
451.753	8.67
452.113	9
452.472	8.99
452.832	8.97
453.192	8.95
453.551	8.92
453.911	8.91
454.271	8.9
454.63	8.92
454.989	8.92
455.349	8.93
455.708	8.93
456.068	8.77
456.427	8.77
456.786	8.79
457.145	8.8
457.505	8.8
457.864	8.82
458.223	8.85
458.582	8.86
458.941	8.89
459.3	8.9
459.659	8.91
460.018	8.92
460.376	8.92
460.735	8.92
461.094	8.93
461.453	8.95
461.811	8.94
462.17	8.93
462.529	8.93
462.887	8.91
463.246	8.92
463.604	8.92
463.963	8.93
464.321	8.97
464.679	8.97
465.038	8.99
465.396	9
465.754	9.01
466.112	9.04
466.47	9.04
466.828	9.06
467.186	9.05
467.544	9.07
467.902	9.08
468.26	9.06
468.618	9.08
468.976	9.09
469.334	9.12
469.692	9.13
470.049	9.13
470.407	9.15
470.765	9.16
471.122	9.18
471.48	9.18
471.837	9.22
472.195	9.23
472.552	9.25
472.909	9.27
473.267	9.26
473.624	9.29
473.981	9.3
474.338	9.31
474.696	9.33
475.053	9.34
475.41	9.38
475.767	9.38
476.124	9.4
476.481	9.41
476.838	9.43
477.194	9.45
477.551	9.46
477.908	9.48
478.265	9.5
478.621	9.51
478.978	9.51
479.335	9.52
479.691	9.53
480.048	9.53
480.404	9.54
480.761	9.55
481.117	9.57
481.473	9.58
481.83	9.59
482.186	9.59
482.542	9.6
482.898	9.62
483.255	9.62
483.611	9.64
483.967	9.66
484.323	9.68
484.679	9.68
485.035	9.69
485.39	9.7
485.746	9.71
486.102	9.71
486.458	9.71
486.814	9.73
487.169	9.73
487.525	9.72
487.88	9.71
488.236	9.7
488.591	9.7
488.947	9.68
489.302	9.68
489.658	9.68
490.013	9.69
490.368	9.7
490.723	9.67
491.079	9.69
491.434	9.7
491.789	9.71
492.144	9.71
492.499	9.71
492.854	9.73
493.209	9.73
493.564	9.72
493.919	9.72
494.273	9.72
494.628	9.72
494.983	9.71
495.338	9.7
495.692	9.7
496.047	9.69
496.401	9.69
496.756	9.68
497.11	9.66
497.465	9.65
497.819	9.64
498.173	9.64
498.528	9.62
498.882	9.62
499.236	9.64
499.59	9.63
499.944	9.65
500.298	9.66
500.652	9.68
501.006	9.69
501.36	9.68
501.714	9.67
502.068	9.67
502.422	9.67
502.776	9.66
503.129	9.65
503.483	9.63
503.837	9.62
504.19	9.59
504.544	9.56
504.897	9.54
505.251	9.53
505.604	9.53
505.958	9.5
506.311	9.47
506.664	9.44
507.017	9.4
507.371	9.37
507.724	9.33
508.077	9.3
508.43	9.27
508.783	9.25
509.136	9.22
509.489	9.21
509.842	9.19
510.195	9.17
510.547	9.16
510.9	9.16
511.253	9.13
511.606	9.12
511.958	9.08
512.311	9.05
512.663	9.02
513.016	9
513.368	8.97
513.721	8.95
514.073	8.93
514.425	8.91
514.778	8.9
515.13	8.9
515.482	8.88
515.834	8.87
516.186	8.86
516.538	8.85
516.89	8.85
517.242	8.84
517.594	8.81
517.946	8.79
518.298	8.77
518.65	8.76
519.001	8.74
519.353	8.72
519.705	8.69
520.056	8.65
520.408	8.62
520.759	8.59
521.111	8.55
521.462	8.55
521.814	8.52
522.165	8.5
522.516	8.47
522.868	8.44
523.219	8.4
523.57	8.37
523.921	8.36
524.272	8.34
524.623	8.32
524.974	8.3
525.325	8.27
525.676	8.24
526.027	8.19
526.378	8.16
526.728	8.13
527.079	8.12
527.43	8.11
527.78	8.09
528.131	8.06
528.481	8.02
528.832	8
529.182	7.98
529.533	7.97
529.883	7.98
530.233	7.96
530.584	7.94
530.934	7.93
531.284	7.89
531.634	7.86
531.984	7.84
532.334	7.83
532.684	7.8
533.034	7.79
533.384	7.75
533.734	7.73
534.084	7.69
534.434	7.69
534.783	7.67
535.133	7.64
535.483	7.62
535.832	7.6
536.182	7.57
536.531	7.56
536.881	7.52
537.23	7.49
537.58	7.44
537.929	7.4
538.278	7.93
538.628	7.89
538.977	7.86
539.326	7.84
539.675	7.81
540.024	7.78
540.373	7.74
540.722	7.72
541.071	7.69
541.42	7.68
541.769	7.69
542.117	7.1
542.466	7.08
542.815	7.08
543.163	7.07
543.512	7.06
543.861	7.06
544.209	7.05
544.558	7.03
544.906	7.01
545.254	7
545.603	6.99
545.951	6.96
546.299	6.97
546.647	6.96
546.996	6.94
547.344	6.92
547.692	6.88
548.04	6.86
548.388	6.85
548.736	6.84
549.083	6.82
549.431	6.79
549.779	6.76
550.127	6.7
550.475	6.64
550.822	6.62
551.17	6.56
551.517	6.56
551.865	6.55
552.212	6.52
552.56	6.49
552.907	6.45
553.254	6.42
553.602	6.4
553.949	6.39
554.296	6.35
554.643	6.34
554.99	6.35
555.337	6.32
555.684	6.27
556.031	6.24
556.378	6.2
556.725	6.2
557.072	6.18
557.419	6.17
557.765	6.14
558.112	6.15
558.459	6.11
558.805	6.1
559.152	6.11
559.498	6.09
559.845	6.08
560.191	6.07
560.538	6.04
560.884	6.03
561.23	6.02
561.576	5.96
561.923	5.9
562.269	5.88
562.615	5.82
562.961	5.76
563.307	5.75
563.653	5.74
563.999	5.73
564.344	5.74
564.69	5.73
565.036	5.72
565.382	5.76
565.727	5.78
566.073	5.77
566.419	5.78
566.764	5.78
567.11	5.77
567.455	5.73
567.8	5.72
568.146	5.68
568.491	5.63
568.836	5.61
569.181	5.58
569.527	5.56
569.872	5.56
570.217	5.53
570.562	5.5
570.907	5.47
571.252	5.47
571.597	5.45
571.941	5.42
572.286	5.43
572.631	5.43
572.976	5.43
573.32	5.42
573.665	5.42
574.009	5.41
574.354	5.38
574.698	5.38
575.043	5.37
575.387	5.36
575.731	5.34
576.076	5.35
576.42	5.35
576.764	5.34
577.108	5.34
577.452	5.35
577.796	5.35
578.14	5.34
578.484	5.33
578.828	5.33
579.172	5.33
579.516	5.32
579.86	5.31
580.203	5.3
580.547	5.28
580.891	5.26
581.234	5.25
581.578	5.25
581.921	5.24
582.264	5.22
582.608	5.2
582.951	5.2
583.294	5.2
583.638	5.19
583.981	5.19
584.324	5.2
584.667	5.2
585.01	5.17
585.353	5.15
585.696	5.15
586.039	5.15
586.382	5.14
586.725	5.12
587.067	5.12
587.41	5.11
587.753	5.1
588.095	5.09
588.438	5.08
588.781	5.06
589.123	5.06
589.465	5.06
589.808	5.06
590.15	5.05
590.492	5.04
590.835	5.01
591.177	5.01
591.519	4.99
591.861	4.98
592.203	4.95
592.545	4.96
592.887	4.96
593.229	4.95
593.571	4.94
593.913	4.94
594.254	4.95
594.596	4.97
594.938	4.98
595.279	4.99
595.621	4.99
595.963	5
596.304	5.01
596.645	5.01
596.987	5.01
597.328	5.01
597.669	5.01
598.011	5.01
598.352	5.02
598.693	5.03
599.034	5.03
599.375	5.02
599.716	5.02
600.057	5
600.398	4.98
600.739	4.97
601.08	4.96
601.42	4.96
601.761	4.91
602.102	4.87
602.442	4.85
602.783	4.84
603.123	4.81
603.464	4.79
603.804	4.77
604.145	4.76
604.485	4.75
604.825	4.74
605.166	4.74
605.506	4.73
605.846	4.73
606.186	4.74
606.526	4.74
606.866	4.75
607.206	4.76
607.546	4.76
607.886	4.76
608.225	4.75
608.565	4.73
608.905	4.73
609.245	4.73
609.584	4.74
609.924	4.74
610.263	4.76
610.603	4.76
610.942	4.76
611.281	4.76
611.621	4.76
611.96	4.74
612.299	4.75
612.638	4.75
612.978	4.74
613.317	4.74
613.656	4.72
613.995	4.67
614.334	4.66
614.672	4.64
615.011	4.63
615.35	4.61
615.689	4.62
616.027	4.64
616.366	4.64
616.705	4.64
617.043	4.63
617.382	4.62
617.72	4.6
618.059	4.6
618.397	4.59
618.735	4.57
619.073	4.55
619.412	4.55
619.75	4.52
620.088	4.5
620.426	4.5
620.764	4.49
621.102	4.48
621.44	4.48
621.778	4.48
622.115	4.47
622.453	4.48
622.791	4.51
623.129	4.49
623.466	4.47
623.804	4.46
624.141	4.43
624.479	4.44
624.816	4.44
625.153	4.44
625.491	4.43
625.828	4.42
626.165	4.41
626.502	4.4
626.84	4.38
627.177	4.41
627.514	4.4
627.851	4.42
628.188	4.39
628.524	4.35
628.861	4.37
629.198	4.39
629.535	4.37
629.871	4.36
630.208	4.38
630.545	4.43
630.881	4.4
631.218	4.42
631.554	4.39
631.89	4.4
632.227	4.42
632.563	4.39
632.899	4.37
633.235	4.38
633.572	4.38
633.908	4.37
634.244	4.32
634.58	4.3
634.916	4.29
635.251	4.3
635.587	4.3
635.923	4.27
636.259	4.29
636.595	4.3
636.93	4.3
637.266	4.3
637.601	4.27
637.937	4.28
638.272	4.34
638.608	4.32
638.943	4.34
639.278	4.34
639.613	4.33
639.949	4.33
640.284	4.31
640.619	4.3
640.954	4.22
641.289	4.23
641.624	4.25
641.959	4.15
642.294	4.1
642.628	4.04
642.963	4.02
643.298	4
643.632	3.97
643.967	3.97
644.302	3.91
644.636	3.95
644.971	3.93
645.305	3.89
645.639	3.92
645.974	3.95
646.308	3.98
646.642	3.99
646.976	4
647.31	3.98
647.644	3.99
647.978	3.98
648.312	3.96
648.646	3.99
648.98	4.02
649.314	4.03
649.647	4.05
649.981	4.01
650.315	3.97
650.648	3.93
650.982	3.97
651.315	4
651.649	3.98
651.982	3.99
652.316	3.97
652.649	3.94
652.982	3.91
653.315	3.92
653.648	3.99
653.982	4.04
654.315	4.01
654.648	3.93
654.981	3.88
655.313	3.91
655.646	3.94
655.979	3.96
656.312	3.88
656.644	3.88
656.977	3.81
657.31	3.74
657.642	3.7
657.975	3.73
658.307	3.79
658.64	3.82
658.972	3.85
659.304	3.86
659.636	3.81
659.969	3.85
660.301	3.89
660.633	3.93
660.965	3.95
661.297	3.94
661.629	3.94
661.961	3.91
662.292	3.88
662.624	3.86
662.956	3.82
663.288	3.83
663.619	3.83
663.951	3.76
664.282	3.75
664.614	3.76
664.945	3.73
665.276	3.76
665.608	3.77
665.939	3.69
666.27	3.6
666.601	3.54
666.933	3.58
667.264	3.58
667.595	3.57
667.926	3.58
668.256	3.56
668.587	3.56
668.918	3.58
669.249	3.55
669.58	3.59
669.91	3.62
670.241	3.71
670.571	3.71
670.902	3.76
671.232	3.74
671.563	3.7
671.893	3.69
672.223	3.74
672.554	3.71
672.884	3.77
673.214	3.79
673.544	3.85
673.874	3.77
674.204	3.72
674.534	3.66
674.864	3.71
675.194	3.68
675.524	3.74
675.853	3.71
676.183	3.64
676.513	3.61
676.842	3.6
677.172	3.61
677.501	3.71
677.831	3.77
678.16	3.75
678.489	3.73
678.819	3.75
679.148	3.69
679.477	3.69
679.806	3.74
680.135	3.72
680.464	3.64
680.793	3.59
681.122	3.52
681.451	3.41
681.78	3.42
682.108	3.41
682.437	3.39
682.766	3.34
683.094	3.36
683.423	3.29
683.751	3.23
684.08	3.21
684.408	3.17
684.737	3.18
685.065	3.16
685.393	3.18
685.721	3.15
686.049	3.21
686.377	3.31
686.705	3.24
687.033	3.27
687.361	3.38
687.689	3.47
688.017	3.53
688.345	3.56
688.673	3.63
689.0	3.62
689.328	3.69
689.655	3.68
689.983	3.67
690.31	3.75
690.638	3.69
690.965	3.55
691.292	3.47
691.62	3.47
691.947	3.35
692.274	3.31
692.601	3.31
692.928	3.27
693.255	3.24
693.582	3.27
693.909	3.25
694.236	3.39
694.562	3.47
694.889	3.56
695.216	3.56
695.542	3.66
695.869	3.71
696.196	3.68
696.522	3.65
696.848	3.65
697.175	3.59
697.501	3.61
697.827	3.59
698.154	3.59
698.48	3.51
698.806	3.53
699.132	3.46
699.458	3.44
699.784	3.44
700.11	3.41
700.435	3.33
700.761	3.31
701.087	3.25
701.413	3.23
701.738	3.21
702.064	3.24
702.389	3.22
702.715	3.22
703.04	3.25
703.366	3.26
703.691	3.32
704.016	3.35
704.341	3.38
704.666	3.43
704.992	3.34
705.317	3.36
705.642	3.32
705.967	3.27
706.291	3.37
706.616	3.4
706.941	3.46
707.266	3.51
707.59	3.58
707.915	3.59
708.24	3.52
708.564	3.57
708.889	3.56
709.213	3.62
709.537	3.61
709.862	3.57
710.186	3.49
710.51	3.44
710.834	3.36
711.158	3.32
711.482	3.26
711.806	3.39
712.13	3.43
712.454	3.49
712.778	3.59
713.102	3.67
713.426	3.63
713.749	3.64
714.073	3.62
714.396	3.65
714.72	3.69
715.043	3.7
715.367	3.65
715.69	3.64
716.013	3.6
716.337	3.45
716.66	3.41
716.983	3.43
717.306	3.38
717.629	3.28
717.952	3.29
718.275	3.25
718.598	3.13
718.921	3.1
719.243	3.01
719.566	2.98
719.889	3.02
720.211	2.87
720.534	2.76
720.856	2.76
721.179	2.82
721.501	2.62
721.823	2.62
722.146	2.74
722.468	2.82
722.79	2.82
723.112	2.77
723.434	2.83
723.756	3.01
724.078	3.04
724.4	3.06
724.722	3.13
725.044	3.24
725.366	3.09
725.687	3.03
726.009	2.91
726.33	2.98
726.652	3.2
726.973	3.14
727.295	2.98
727.616	2.97
727.938	3.07
728.259	3.15
728.58	3.17
728.901	3.22
729.222	3.34
729.543	3.37
729.864	3.39
730.185	3.08
730.506	2.96
730.827	3.07
731.148	3.08
731.468	3.02
731.789	2.89
732.11	2.94
732.43	3
732.751	3.02
733.071	2.95
733.392	3.03
733.712	3.22
734.032	3.5
734.352	3.56
734.673	3.67
734.993	3.8
735.313	3.76
735.633	3.77
735.953	3.79
736.273	3.69
736.593	3.93
736.912	3.87
737.232	3.73
737.552	3.56
737.871	3.42
738.191	3.48
738.51	3.39
738.83	3.62
739.149	3.75
739.469	3.86
739.788	3.82
740.107	3.7
740.426	3.63
740.746	3.8
741.065	3.83
741.384	3.84
741.703	3.67
742.022	3.51
742.341	3.5
742.659	3.36
742.978	3.14
743.297	3.4
743.615	3.29
743.934	3.35
744.253	3.31
744.571	3.38
744.89	3.42
745.208	3.47
745.526	3.66
745.845	3.43
746.163	3.4
746.481	3.71
746.799	3.71
747.117	3.91
747.435	3.95
747.753	4.06
748.071	3.99
748.389	4.07
748.706	3.98
749.024	3.77
749.342	4.12
749.659	4.21
749.977	3.89
750.295	3.79
750.612	3.78
750.929	3.72
751.247	3.73
751.564	3.61
751.881	3.56
752.198	3.8
752.516	3.86
752.833	3.64
753.15	3.61
753.467	3.66
753.783	3.52
754.1	3.49
754.417	3.44
754.734	3.37
755.05	3.72
755.367	3.54
755.684	3.54
756.0	3.66
756.317	3.65
756.633	3.54
756.949	3.65
757.266	3.62
757.582	3.49
757.898	3.43
758.214	3.27
758.53	3.05
758.846	3.35
759.162	3.06
759.478	2.9
759.794	3
760.11	3.07
760.426	3.05
760.741	3.21
761.057	3.18
761.372	3.15
761.688	3.23
762.003	3.29
762.319	3.24
762.634	3.44
762.949	3.57
763.265	3.61
763.58	3.67
763.895	3.66
764.21	3.54
764.525	3.4
764.84	3.53
765.155	3.71
765.47	3.81
765.785	3.69
766.099	3.68
766.414	3.63
766.729	3.37
767.043	3.39
767.358	3.35
767.672	3.16
767.987	3.27
768.301	3.32
768.615	3.34
768.929	3.09
769.244	3.27
769.558	3.41
769.872	3.37
770.186	3.43
770.5	3.35
770.814	3.11
771.127	3.43
771.441	3.56
771.755	3.74
772.069	3.26
772.382	3.39
772.696	3.53
773.009	3.37
773.323	3.47
773.636	3.59
773.95	3.73
774.263	4.14
774.576	3.9
774.889	4.07
775.202	3.67
775.515	3.87
775.828	3.56
776.141	3.52
776.454	3.45
776.767	3.34
777.08	3.27
777.393	2.76
777.705	2.49
778.018	2.75
778.33	2.41
778.643	2.61
778.955	2.73
779.268	3.21
779.58	2.96
779.892	3.11
780.205	2.75
780.517	2.73
780.829	3.44
781.141	3.76
781.453	3.65
781.765	4.24
782.077	4.21
782.388	4.3
782.7	3.92
783.012	4.33
783.324	3.91
783.635	4.51
783.947	4.92
784.258	4.16
784.57	4.14
784.881	4.25
785.192	3.07
785.504	2.99
785.815	2.7
786.126	2.6
786.437	2.68
786.748	3.06
787.059	2.63
787.37	2.24
787.681	2.73
787.992	2.9
788.302	3.05
788.613	3.77
788.924	3.92
789.234	4.42
789.545	5.02
789.855	4.72
790.166	4.47
790.476	4.84
790.786	4.99
791.096	4.9
791.407	5.11
791.717	4.71
792.027	4.9
792.337	4.54
792.647	4.35
792.957	4.08
793.266	3.8
793.576	3.84
793.886	3.33
794.196	3.26
794.505	5.08
794.815	4.32
795.124	5.29
795.434	5.35
795.743	5.35
796.052	5.48
796.362	5.35
796.671	5.79
796.98	6.31
797.289	6.82
797.598	6.38
797.907	4.82
798.216	5.31
798.525	4.8
798.834	4.8
799.142	5.1
799.451	5.11
799.76	5.31
800.068	5.14
800.377	4.88
800.685	4.58
800.994	4.81
801.302	4.66
801.61	4.14
801.918	3.47
802.227	3.12
802.535	2.89
802.843	2.35
803.151	2.14
803.459	2.18
803.767	2.26
804.074	2.23
804.382	2.5
804.69	3.25
804.998	3.56
805.305	4.16
805.613	4.37
805.92	4.74
806.228	4.61
806.535	4
806.842	3.68
807.15	3.59
807.457	3.75
807.764	3.83
808.071	3.35
808.378	3.7
808.685	4.43
808.992	4.01
809.299	4.46
809.605	4.91
809.912	5.59
810.219	5.24
810.525	5.2
810.832	5.01
811.138	4.65
811.445	4.43
811.751	4.11
812.058	3.16
812.364	3.44
812.67	2.68
812.976	2.34
813.282	1.77
813.588	2.38
813.894	2.31
814.2	2.91
814.506	3.08
814.812	2.88
815.118	2.7
815.423	2.71
815.729	3.25
816.035	3.27
816.34	3.42
816.646	4.29
816.951	4.78
817.256	4.72
817.562	4.6
817.867	4.57
818.172	4.58
818.477	4.81
818.782	4.69
819.087	4.66
819.392	4.56
819.697	4.19
820.002	4.29
820.306	3.73
820.611	3.59
820.916	3.64
821.22	3.71
821.525	3.23
821.829	3.37
822.134	3.57
822.438	3.31
822.742	3.34
823.047	3.54
823.351	3.41
823.655	3.49
823.959	3.54
824.263	3.46
824.567	3.5
824.871	3.83
825.174	3.95
825.478	2.99
825.782	3.05
826.086	3.19
826.389	3.16
826.693	3.35
826.996	3.37
827.3	3.5
827.603	3.59
827.906	3.57
828.209	3.52
828.513	3.37
828.816	4.44
829.119	4.36
829.422	4.25
829.725	4.28
830.028	3.95
830.33	3.65
830.633	3.71
830.936	3.72
831.238	3.57
831.541	3.42
831.844	3.53
832.146	3.5
832.448	3.85
832.751	3.84
833.053	3.85
833.355	4.61
833.657	4.65
833.96	4.33
834.262	4.12
834.564	4.11
834.865	3.94
835.167	4.25
835.469	4.18
835.771	3.34
836.073	2.96
836.374	2.91
836.676	2.29
836.977	2.9
837.279	3.2
837.58	3.41
837.882	3.56
838.183	4.23
838.484	3.1
838.785	3.27
839.086	4.16
839.387	4.62
839.688	5.49
839.989	5.82
840.29	5.94
840.591	6.15
840.892	5.73
841.192	6.25
841.493	5.73
841.794	6.56
842.094	7.06
842.394	6.97
842.695	12.85
842.995	11.61
843.295	11.56
843.596	12.15
843.896	11.42
844.196	11.88
844.496	11.86
844.796	11.54
845.096	12.03
845.396	10.77
845.695	11.93
845.995	5.51
846.295	6.43
846.594	5.69
846.894	5.66
847.194	5.35
847.493	6.15
847.792	6.53
848.092	5.84
848.391	5.4
848.69	7.92
848.989	6.99
849.288	6.28
849.587	6.65
849.886	8.02
850.185	7.6
850.484	8.72
850.783	8.11
851.081	8.16
851.38	10.69
851.679	12.62
851.977	11.27
852.276	12.77
852.574	13.32
852.872	11.71
853.171	11.44
853.469	9.56
853.767	9.08
854.065	8.86
854.363	6.73
854.661	7.35
854.959	4.63
855.257	1.57
855.555	1.57
855.853	1.57
856.15	1.57
856.448	1.57
856.746	0.89
857.043	0.63
857.341	4.06
857.638	8.57
857.935	5.97
858.233	7.13
858.53	10.75
858.827	11.75
859.124	10.42
859.421	11.96
859.718	14.8
860.015	14.52
860.312	14.75
860.609	11.61
860.905	8.75
861.202	8.88
861.499	8.45
861.795	9.21
862.092	7.98
862.388	6.64
862.684	3.95
862.981	0.56
863.277	0.56
863.573	0.56
863.869	0.62
864.165	1.22
864.461	2.05
864.757	3.02
865.053	1.63
865.349	3.6
865.645	4.07
865.94	6.05
866.236	5.33
866.532	7.31
866.827	5.86
867.123	5.28
867.418	4.74
867.713	1.72
868.009	1.72
868.304	1.72
868.599	1.72
868.894	0.23
869.189	0.23
869.484	0.81
869.779	2.55
870.074	4.79
870.369	4.33
870.663	3.63
870.958	5.81
871.252	6.13
871.547	5.23
871.842	6.36
872.136	3.87
872.43	5.37
872.725	5.72
873.019	3.02
873.313	2.23
873.607	0.48
873.901	0.49
874.195	2.15
874.489	5.58
874.783	4.86
875.077	2.13
875.37	6.99
875.664	7.55
875.958	10.75
876.251	14
876.545	14.8
876.838	15.49
877.132	19.13
877.425	20.05
877.718	18.67
878.011	20.99
878.305	23.89
878.598	20.12
878.891	17.24
879.184	14.55
879.476	13.65
879.769	11.05
880.062	8.57
880.355	4.6
880.647	4.05
880.94	3.9
881.232	3.56
881.525	0.4
881.817	2.35
882.11	3.86
882.402	3.07
882.694	2.01
882.986	3.92
883.278	5.57
883.57	6.14
883.862	6.05
884.154	5.91
884.446	5.74
884.738	6
885.03	5.34
885.321	5.2
885.613	5.57
885.904	5.71
886.196	4.91
886.487	4.81
886.779	4.13
887.07	3.82
887.361	3.54
887.652	3.72
887.943	3.1
888.234	3.46
888.525	2.91
888.816	2.01
889.107	1.44
889.398	1.77
889.689	1.58
889.979	0.45
890.27	0.22
890.56	0.64
890.851	0.64
891.141	0.04
891.432	0.04
891.722	0.04
